LabVIEW Measurement	
Writer_Version	2
Reader_Version	2
Separator	Tab
Decimal_Separator	.
Multi_Headings	Yes
X_Columns	No
Time_Pref	Relative
Operator	scien
Date	2025/08/24
Time	21:17:12.2950258255004882813
***End_of_Header***	
	
Channels	2		
Samples	100	100	
Date	1903/12/31	1903/12/31	
Time	19:00:00	19:00:00	
X_Dimension	Time	Time	
X0	0.0000000000000000E+0	0.0000000000000000E+0	
Delta_X	1.000000	1.000000	
***End_of_Header***			
X_Value	Untitled	Untitled 1	Comment
	10.002937	0.015172
	9.297449	0.015086
	8.588627	0.015002
	7.883384	0.014918
	7.171492	0.014828
	6.466131	0.014734
	5.760967	0.014635
	5.052186	0.014530
	4.346730	0.014420
	3.635087	0.014302
	2.929474	0.014180
	2.220816	0.014049
	1.515569	0.013915
	0.810355	0.013771
	0.101747	0.013613
	-0.626288	0.013429
	-1.334365	0.013221
	-2.039792	0.012963
	-2.745319	0.012613
	-3.456886	0.005756
	-4.162315	0.005636
	-4.871215	0.005512
	-5.576520	0.005385
	-6.284787	0.005257
	-6.990203	0.005131
	-7.695755	0.005007
	-8.407815	0.004886
	-9.113452	0.004769
	-9.821614	0.004655
	-10.527335	0.004545
	-11.232622	0.004439
	-11.944649	0.004335
	-12.646668	0.004235
	-13.358796	0.004138
	-14.063971	0.004043
	-14.772618	0.003953
	-15.477726	0.003866
	-16.183155	0.003781
	-16.895199	0.003697
	-17.600433	0.003617
	-18.308775	0.003539
	-19.014097	0.003464
	-19.719021	0.003390
	-20.427856	0.003317
	-21.133152	0.003246
	-21.845230	0.003177
	-22.549986	0.003109
	-23.255505	0.003042
	-23.964151	0.002976
	-24.669336	0.002910
	-25.381243	0.002845
	-26.086399	0.002781
	-26.795212	0.002716
	-27.500511	0.002653
	-28.205820	0.002589
	-28.914267	0.002526
	-29.619436	0.002462
	-30.331453	0.002399
	-31.036764	0.002336
	-31.741722	0.002272
	-32.450550	0.002209
	-33.155567	0.002144
	-33.863819	0.002080
	-34.569271	0.002016
	-35.280876	0.001951
	-35.986149	0.001887
	-36.691429	0.001823
	-37.399986	0.001758
	-38.105396	0.001692
	-38.817234	0.001623
	-39.522152	0.001551
	-40.227467	0.001477
	-40.936077	0.001400
	-41.641106	0.001323
	-42.349854	0.001241
	-43.054924	0.001151
	-43.760075	0.001046
	-44.470757	0.000917
	-45.176037	0.000688
	-45.885315	0.000305
	-46.590813	0.000171
	-47.302288	0.000114
	-48.002865	9.015498E-5
	-48.708187	7.665707E-5
	-49.420158	6.448452E-5
	-50.125526	5.325534E-5
	-50.834190	4.285968E-5
	-51.539265	3.342110E-5
	-52.244705	2.504241E-5
	-52.956486	1.766944E-5
	-53.661938	1.155212E-5
	-54.369648	6.775734E-6
	-55.075405	3.124702E-6
	-55.784004	3.202439E-7
	-56.489761	-1.970059E-6
	-57.195774	-4.108025E-6
	-57.908157	-6.236906E-6
	-58.613850	-8.433032E-6
	-59.320774	-1.080910E-5
	-60.026115	-1.338710E-5

Channels	2		
Samples	100	100	
Date	1903/12/31	1903/12/31	
Time	19:00:00	19:00:00	
X_Dimension	Time	Time	
X0	0.0000000000000000E+0	0.0000000000000000E+0	
Delta_X	1.000000	1.000000	
***End_of_Header***			
X_Value	Untitled	Untitled 1	Comment
	10.003064	0.015164
	9.297446	0.015076
	8.588659	0.014991
	7.883468	0.014905
	7.171495	0.014816
	6.466154	0.014723
	5.761114	0.014625
	5.052312	0.014520
	4.346977	0.014412
	3.635066	0.014296
	2.929526	0.014177
	2.220857	0.014051
	1.515744	0.013919
	0.810385	0.013779
	0.101646	0.013624
	-0.626045	0.013445
	-1.334305	0.013242
	-2.039883	0.012989
	-2.745300	0.012648
	-3.457126	0.012156
	-4.162142	0.005648
	-4.871245	0.005528
	-5.576546	0.005407
	-6.284780	0.005282
	-6.990567	0.005158
	-7.695798	0.005035
	-8.407928	0.004914
	-9.113643	0.004797
	-9.821753	0.004683
	-10.527351	0.004573
	-11.232706	0.004466
	-11.944684	0.004362
	-12.646952	0.004262
	-13.358866	0.004164
	-14.064071	0.004069
	-14.772602	0.003978
	-15.477932	0.003889
	-16.183498	0.003805
	-16.895178	0.003720
	-17.600626	0.003640
	-18.308846	0.003561
	-19.014193	0.003486
	-19.719446	0.003412
	-20.427864	0.003340
	-21.133116	0.003270
	-21.845169	0.003200
	-22.549986	0.003132
	-23.255558	0.003065
	-23.964018	0.002998
	-24.669130	0.002933
	-25.381130	0.002868
	-26.086576	0.002804
	-26.795193	0.002740
	-27.500448	0.002676
	-28.205822	0.002612
	-28.914259	0.002548
	-29.619413	0.002483
	-30.331427	0.002420
	-31.036575	0.002356
	-31.741856	0.002292
	-32.450356	0.002228
	-33.155495	0.002164
	-33.863617	0.002099
	-34.569206	0.002035
	-35.280842	0.001971
	-35.986191	0.001908
	-36.691319	0.001845
	-37.399887	0.001781
	-38.105335	0.001716
	-38.816990	0.001648
	-39.521965	0.001578
	-40.227367	0.001504
	-40.935856	0.001428
	-41.641037	0.001352
	-42.349548	0.001272
	-43.054890	0.001187
	-43.759911	0.001089
	-44.470417	0.000972
	-45.175949	0.000813
	-45.884613	0.000421
	-46.590649	0.000205
	-47.301975	0.000129
	-48.002815	9.585795E-5
	-48.707951	8.023304E-5
	-49.420010	6.796968E-5
	-50.125187	5.648050E-5
	-50.833992	4.570595E-5
	-51.539471	3.594168E-5
	-52.244324	2.717054E-5
	-52.956230	1.926983E-5
	-53.661896	1.268957E-5
	-54.369503	7.327204E-6
	-55.075279	3.278988E-6
	-55.784142	1.991893E-7
	-56.489941	-2.248804E-6
	-57.195805	-4.356705E-6
	-57.908096	-6.420523E-6
	-58.613926	-8.509116E-6
	-59.320923	-1.072195E-5
	-60.025936	-1.313312E-5

