LabVIEW Measurement	
Writer_Version	2
Reader_Version	2
Separator	Tab
Decimal_Separator	.
Multi_Headings	Yes
X_Columns	No
Time_Pref	Relative
Operator	scien
Date	2025/08/24
Time	21:17:12.2950258255004882813
***End_of_Header***	
	
Channels	2		
Samples	100	100	
Date	1903/12/31	1903/12/31	
Time	19:00:00	19:00:00	
X_Dimension	Time	Time	
X0	0.0000000000000000E+0	0.0000000000000000E+0	
Delta_X	1.000000	1.000000	
***End_of_Header***			
X_Value	Untitled	Untitled 1	Comment
	10.003467	0.004042
	9.496799	0.003968
	8.993236	0.003897
	8.486803	0.003829
	7.983218	0.003762
	7.476623	0.003698
	6.973259	0.003635
	6.466544	0.003576
	5.963171	0.003517
	5.456837	0.003458
	4.953424	0.003404
	4.446686	0.003349
	3.943599	0.003296
	3.436702	0.003244
	2.929836	0.003194
	2.426498	0.003144
	1.919882	0.003096
	1.416841	0.003049
	0.909784	0.003002
	0.406325	0.002957
	-0.120224	0.002911
	-0.626329	0.002867
	-1.129812	0.002824
	-1.636354	0.002783
	-2.139643	0.002740
	-2.646478	0.002701
	-3.150047	0.002661
	-3.656754	0.002622
	-4.163146	0.002584
	-4.666574	0.002546
	-5.173128	0.002510
	-5.676730	0.002473
	-6.182881	0.002438
	-6.686595	0.002403
	-7.192976	0.002367
	-7.696402	0.002334
	-8.203172	0.002301
	-8.706496	0.002268
	-9.213323	0.002235
	-9.716530	0.002204
	-10.223240	0.002172
	-10.730063	0.002141
	-11.233299	0.002110
	-11.740224	0.002080
	-12.242978	0.002049
	-12.749638	0.002019
	-13.253194	0.001989
	-13.759746	0.001960
	-14.263636	0.001930
	-14.769714	0.001901
	-15.279741	0.001872
	-15.782888	0.001842
	-16.289557	0.001813
	-16.793091	0.001784
	-17.299614	0.001754
	-17.806158	0.001724
	-18.309374	0.001695
	-18.815931	0.001664
	-19.319492	0.001635
	-19.825611	0.001604
	-20.328850	0.001575
	-20.835428	0.001544
	-21.338665	0.001514
	-21.845358	0.001484
	-22.348654	0.001455
	-22.855112	0.001424
	-23.358526	0.001394
	-23.865162	0.001364
	-24.368444	0.001334
	-24.874924	0.001303
	-25.381594	0.001273
	-25.884508	0.001244
	-26.391159	0.001213
	-26.894947	0.001183
	-27.401606	0.001152
	-27.904835	0.001122
	-28.411175	0.001092
	-28.914614	0.001062
	-29.421362	0.001032
	-29.924406	0.001002
	-30.429857	0.000972
	-30.933081	0.000942
	-31.439865	0.000911
	-31.946627	0.000879
	-32.449940	0.000848
	-32.956581	0.000816
	-33.459286	0.000785
	-33.966164	0.000753
	-34.469261	0.000721
	-34.975777	0.000687
	-35.479042	0.000652
	-35.986073	0.000614
	-36.489010	0.000573
	-36.995647	0.000528
	-37.499077	0.000476
	-38.006199	0.000409
	-38.508205	0.000320
	-39.015598	0.000217
	-39.522514	0.000139
	-40.035049	9.262429E-5
